File: data/202004_Sydney_TGA_NoExpiry.txt
04/01/2020,02:48,.052,.052,.052,.052, 100000
04/01/2020,03:23,.055,.055,.055,.055, 20000
04/01/2020,04:00,.051,.051,.051,.051, 8098
04/01/2020,04:11,.055,.055,.055,.055, 17800
04/01/2020,04:32,.055,.055,.055,.055, 20000
04/01/2020,04:46,.052,.052,.052,.052, 200000
04/01/2020,05:20,.052,.052,.052,.052, 241036
04/01/2020,05:36,.052,.052,.052,.052, 11393
04/01/2020,06:48,.052,.052,.052,.052, 39923
04/01/2020,06:57,.052,.052,.052,.052, 3901
04/01/2020,07:03,.052,.052,.052,.052, 193918
04/01/2020,07:05,.052,.052,.052,.052, 593
04/01/2020,07:11,.052,.052,.052,.052, 4095
04/01/2020,07:32,.052,.052,.052,.052, 1001394
04/02/2020,01:30,.051,.051,.05,.05, 569900
04/02/2020,01:31,.049,.05,.049,.05, 227641
04/02/2020,01:33,.049,.049,.049,.049, 42483
04/02/2020,01:35,.049,.049,.049,.049, 45000
04/02/2020,01:38,.049,.049,.046,.046, 77789
04/02/2020,01:56,.047,.047,.047,.047, 55976
04/02/2020,01:58,.049,.049,.049,.049, 73977
04/02/2020,02:01,.052,.052,.052,.052, 30000
04/02/2020,03:06,.05,.05,.05,.05, 21090
04/02/2020,03:49,.051,.051,.051,.051, 70047
04/02/2020,03:51,.051,.052,.051,.052, 391454
04/02/2020,03:52,.051,.052,.051,.052, 79119
04/02/2020,04:00,.052,.052,.052,.052, 40000
04/02/2020,04:11,.052,.052,.052,.052, 4187
04/02/2020,05:44,.053,.053,.053,.053, 20260
04/02/2020,05:47,.052,.052,.052,.052, 214
04/02/2020,06:06,.055,.055,.055,.055, 10000
04/02/2020,06:13,.052,.052,.052,.052, 153830
04/02/2020,06:13,.052,.052,.052,.052, 76915
04/02/2020,06:40,.052,.052,.052,.052, 2500
04/02/2020,07:32,.052,.052,.052,.052, 46170
04/03/2020,02:21,.053,.053,.053,.053, 10000
04/03/2020,04:25,.052,.052,.052,.052, 480
04/03/2020,04:29,.052,.052,.052,.052, 11570
04/03/2020,05:00,.054,.054,.054,.054, 9500
04/03/2020,05:18,.051,.051,.051,.051, 250000
04/03/2020,05:27,.054,.054,.054,.054, 65000
04/03/2020,05:32,.051,.051,.051,.051, 1550
04/03/2020,06:51,.053,.053,.053,.053, 100000
04/03/2020,07:04,.055,.055,.055,.055, 10000
04/03/2020,07:31,.055,.055,.055,.055, 347558
04/06/2020,02:29,.055,.055,.055,.055, 200000
04/06/2020,02:39,.055,.055,.055,.055, 8782
04/06/2020,03:18,.053,.053,.053,.053, 14250
04/06/2020,03:33,.053,.053,.053,.053, 117896
04/06/2020,05:36,.055,.055,.055,.055, 4226
04/06/2020,06:26,.057,.057,.055,.055, 5429
04/06/2020,06:44,.055,.057,.055,.057, 18000
04/07/2020,02:32,.057,.057,.057,.057, 43318
04/07/2020,02:36,.058,.058,.058,.058, 100000
04/07/2020,03:35,.062,.062,.062,.062, 14000
04/07/2020,03:38,.062,.062,.062,.062, 35000
04/07/2020,04:13,.062,.062,.062,.062, 113678
04/07/2020,04:45,.062,.062,.062,.062, 5000
04/07/2020,06:01,.062,.062,.062,.062, 40000
04/07/2020,07:33,.064,.064,.064,.064, 1000
04/07/2020,08:10,.064,.064,.064,.064, 1000
04/07/2020,08:33,.064,.064,.064,.064, 1000
04/08/2020,02:30,.062,.062,.062,.062, 80504
04/08/2020,02:33,.062,.062,.062,.062, 9840
04/08/2020,02:37,.062,.062,.062,.062, 700
04/08/2020,02:49,.063,.063,.063,.063, 72000
04/08/2020,04:06,.064,.064,.064,.064, 21518
04/08/2020,05:18,.062,.062,.062,.062, 50000
04/08/2020,06:31,.062,.062,.062,.062, 116960
04/08/2020,07:41,.061,.066,.061,.066, 143040
04/08/2020,08:20,.062,.062,.062,.062, 2712
04/09/2020,02:29,.066,.066,.066,.066, 70000
04/09/2020,03:03,.063,.063,.063,.063, 2712
04/09/2020,03:21,.066,.066,.066,.066, 7950
04/09/2020,04:36,.062,.062,.061,.061, 693233
04/09/2020,05:01,.061,.061,.061,.061, 8696
04/09/2020,05:06,.061,.061,.061,.061, 10263
04/14/2020,02:29,.065,.065,.065,.065, 26000
04/14/2020,02:55,.064,.064,.064,.064, 27486
04/14/2020,03:18,.064,.064,.064,.064, 7637
04/14/2020,03:44,.064,.065,.064,.065, 12972
04/14/2020,03:49,.065,.065,.065,.065, 51180
04/14/2020,04:09,.066,.066,.066,.066, 8000
04/14/2020,05:45,.066,.066,.066,.066, 786
04/14/2020,06:05,.065,.065,.065,.065, 24991
04/14/2020,06:12,.064,.064,.064,.064, 3143
04/14/2020,07:15,.065,.065,.065,.065, 100000
04/14/2020,07:19,.065,.065,.065,.065, 8357
04/14/2020,08:14,.066,.066,.066,.066, 120264
04/15/2020,02:29,.069,.069,.069,.069, 32000
04/15/2020,02:36,.069,.07,.069,.07, 171300
04/15/2020,02:51,.074,.074,.074,.074, 15000
04/15/2020,03:14,.074,.074,.073,.073, 36000
04/15/2020,03:17,.073,.073,.073,.073, 2500
04/15/2020,04:07,.073,.073,.073,.073, 29000
04/15/2020,04:25,.073,.073,.073,.073, 1000
04/15/2020,04:26,.067,.067,.067,.067, 4000
04/15/2020,04:29,.067,.067,.066,.066, 9000
04/15/2020,05:33,.066,.066,.066,.066, 6908
04/15/2020,05:53,.066,.066,.065,.065, 46485
04/15/2020,07:17,.065,.065,.065,.065, 14054
04/15/2020,07:39,.068,.068,.066,.066, 7501
04/15/2020,07:41,.068,.068,.068,.068, 172
04/15/2020,08:08,.068,.069,.068,.069, 10000
04/15/2020,08:16,.067,.07,.067,.07, 100000
04/15/2020,08:31,.07,.07,.07,.07, 29112
04/16/2020,02:30,.078,.078,.078,.078, 10000
04/16/2020,02:45,.073,.073,.073,.073, 12242
04/16/2020,03:19,.073,.073,.073,.073, 8000
04/16/2020,03:30,.074,.074,.074,.074, 40000
04/16/2020,06:39,.072,.072,.072,.072, 25000
04/16/2020,07:46,.073,.075,.073,.075, 17891
04/16/2020,07:50,.075,.075,.075,.075, 13000
04/16/2020,08:09,.071,.071,.07,.07, 6500
04/16/2020,08:12,.07,.07,.07,.07, 7623
04/16/2020,08:13,.07,.07,.07,.07, 12326
04/16/2020,08:14,.07,.07,.07,.07, 6604
04/17/2020,02:29,.07,.07,.07,.07, 125221
04/17/2020,02:38,.07,.07,.07,.07, 129610
04/17/2020,02:41,.07,.07,.07,.07, 48000
04/17/2020,02:49,.07,.07,.07,.07, 63000
04/17/2020,03:11,.071,.071,.071,.071, 15000
04/17/2020,03:30,.07,.07,.07,.07, 6160
04/17/2020,03:39,.07,.07,.07,.07, 3840
04/17/2020,03:43,.07,.074,.07,.074, 88739
04/17/2020,04:12,.07,.07,.07,.07, 55926
04/17/2020,04:28,.07,.07,.07,.07, 4074
04/17/2020,04:30,.072,.072,.072,.072, 70926
04/17/2020,05:04,.072,.074,.072,.074, 40000
04/17/2020,05:54,.07,.07,.07,.07, 7474
04/17/2020,06:04,.07,.07,.07,.07, 5390
04/17/2020,07:21,.073,.073,.073,.073, 13302
04/17/2020,08:16,.073,.073,.07,.07, 11698
04/17/2020,08:18,.073,.073,.073,.073, 5000
04/17/2020,08:32,.076,.076,.076,.076, 27516