File: data/202002_Sydney_TGA_NoExpiry.txt
02/03/2020,00:45,.225,.225,.225,.225, 34
02/03/2020,01:52,.225,.225,.22,.225, 4421
02/03/2020,02:14,.225,.225,.225,.225, 30
02/03/2020,02:47,.22,.22,.22,.22, 56354
02/04/2020,02:24,.215,.215,.21,.21, 119434
02/04/2020,02:27,.215,.215,.215,.215, 28
02/04/2020,02:33,.215,.215,.215,.215, 28
02/04/2020,02:35,.215,.215,.215,.215, 10
02/04/2020,02:37,.215,.215,.215,.215, 4
02/04/2020,02:55,.212,.212,.212,.212, 26
02/04/2020,03:01,.212,.212,.212,.212, 27
02/04/2020,03:06,.212,.212,.212,.212, 26
02/04/2020,03:08,.22,.22,.22,.22, 45
02/04/2020,03:10,.22,.22,.22,.22, 8
02/04/2020,03:12,.22,.22,.22,.22, 9
02/04/2020,03:14,.22,.22,.22,.22, 9
02/04/2020,03:16,.22,.22,.22,.22, 4
02/04/2020,03:18,.22,.22,.22,.22, 8
02/04/2020,03:20,.22,.22,.22,.22, 8
02/04/2020,03:22,.22,.22,.22,.22, 8
02/04/2020,03:25,.22,.22,.22,.22, 24
02/04/2020,03:32,.22,.22,.22,.22, 24
02/04/2020,03:34,.22,.22,.22,.22, 8
02/04/2020,03:36,.22,.22,.22,.22, 8
02/04/2020,03:38,.22,.22,.22,.22, 8
02/04/2020,03:40,.22,.22,.22,.22, 8
02/04/2020,03:42,.22,.22,.22,.22, 8
02/04/2020,03:46,.22,.22,.22,.22, 24
02/04/2020,03:53,.22,.22,.22,.22, 24
02/04/2020,03:55,.22,.22,.22,.22, 7
02/04/2020,03:57,.22,.22,.22,.22, 8
02/04/2020,03:59,.22,.22,.22,.22, 9
02/04/2020,04:01,.22,.22,.22,.22, 8
02/04/2020,04:02,.22,.22,.22,.22, 4
02/04/2020,04:10,.22,.22,.22,.22, 28
02/04/2020,04:13,.22,.22,.22,.22, 1
02/04/2020,04:20,.22,.22,.22,.22, 28
02/04/2020,04:24,.22,.22,.22,.22, 5
02/04/2020,04:26,.22,.22,.22,.22, 8
02/04/2020,04:28,.22,.22,.22,.22, 11
02/04/2020,04:30,.22,.22,.22,.22, 8
02/04/2020,04:32,.22,.22,.22,.22, 8
02/04/2020,04:38,.22,.22,.22,.22, 26
02/04/2020,04:43,.22,.22,.22,.22, 13
02/04/2020,04:45,.22,.22,.22,.22, 9
02/04/2020,04:47,.22,.22,.22,.22, 11
02/04/2020,04:49,.22,.22,.22,.22, 9
02/04/2020,04:51,.22,.22,.22,.22, 9
02/04/2020,04:53,.22,.22,.22,.22, 8
02/04/2020,04:55,.22,.22,.22,.22, 8
02/04/2020,04:57,.22,.22,.22,.22, 9
02/04/2020,04:59,.22,.22,.22,.22, 10
02/04/2020,05:01,.22,.22,.22,.22, 9
02/04/2020,05:02,.22,.22,.22,.22, 4
02/04/2020,05:08,.22,.22,.22,.22, 23
02/04/2020,05:13,.22,.22,.22,.22, 23
02/04/2020,05:18,.22,.22,.22,.22, 23
02/04/2020,05:23,.22,.22,.22,.22, 23
02/04/2020,05:28,.22,.22,.22,.22, 24
02/04/2020,05:33,.22,.22,.22,.22, 21
02/04/2020,05:35,.22,.22,.22,.22, 11
02/04/2020,05:37,.22,.22,.22,.22, 9
02/04/2020,05:39,.22,.22,.22,.22, 11
02/04/2020,05:41,.22,.22,.22,.22, 10
02/04/2020,05:43,.22,.22,.22,.22, 6
02/04/2020,05:48,.22,.22,.22,.22, 28
02/04/2020,05:52,.22,.22,.22,.22, 22
02/04/2020,05:56,.22,.22,.22,.22, 22
02/04/2020,06:00,.22,.22,.22,.22, 23
02/04/2020,06:03,.22,.22,.22,.22, 13
02/04/2020,06:05,.22,.22,.22,.22, 14
02/04/2020,06:07,.22,.22,.22,.22, 16
02/04/2020,06:09,.22,.22,.22,.22, 16
02/04/2020,06:11,.22,.22,.22,.22, 16
02/04/2020,06:13,.22,.22,.22,.22, 8
02/04/2020,06:16,.22,.22,.22,.22, 28
02/04/2020,06:18,.22,.22,.22,.22, 19
02/05/2020,01:05,.215,.22,.215,.22, 3333
02/05/2020,02:29,.215,.22,.215,.22, 30676
02/05/2020,03:05,.22,.22,.22,.22, 1485
02/06/2020,00:29,.22,.22,.22,.22, 1606
02/06/2020,01:49,.212,.212,.212,.212, 215
02/06/2020,02:48,.212,.215,.21,.21, 33367
02/06/2020,03:47,.215,.215,.215,.215, 2775
02/06/2020,05:10,.218,.218,.218,.218, 320
02/06/2020,05:55,.215,.215,.215,.215, 4000
02/07/2020,00:30,.215,.215,.215,.215, 1299
02/07/2020,01:29,.215,.215,.215,.215, 407
02/07/2020,01:58,.215,.215,.215,.215, 434
02/07/2020,02:49,.218,.218,.215,.215, 4585
02/07/2020,03:12,.218,.218,.215,.215, 2439
02/07/2020,03:43,.218,.218,.215,.215, 418
02/07/2020,04:33,.215,.215,.215,.215, 409
02/07/2020,05:20,.215,.215,.215,.215, 399
02/07/2020,06:06,.22,.22,.22,.22, 13000
02/10/2020,00:30,.225,.225,.225,.225, 11235
02/10/2020,00:56,.22,.22,.22,.22, 343
02/10/2020,01:58,.215,.215,.215,.215, 850
02/11/2020,02:17,.215,.215,.215,.215, 2064
02/11/2020,02:25,.215,.215,.215,.215, 11644
02/11/2020,02:29,.215,.215,.215,.215, 2000
02/11/2020,06:20,.215,.215,.215,.215, 553
02/13/2020,01:00,.21,.21,.21,.21, 872
02/13/2020,03:57,.21,.21,.21,.21, 700
02/13/2020,06:02,.205,.205,.205,.205, 1038
02/14/2020,00:52,.205,.205,.205,.205, 50000
02/14/2020,02:21,.205,.205,.205,.205, 2255
02/17/2020,01:01,.2,.2,.2,.2, 47761
02/17/2020,02:32,.2,.2,.2,.2, 24588
02/17/2020,02:59,.2,.2,.2,.2, 12000
02/17/2020,06:31,.195,.195,.195,.195, 51677
02/18/2020,02:13,.195,.2,.195,.2, 10181
02/18/2020,02:58,.2,.2,.2,.2, 133
02/18/2020,04:29,.2,.2,.2,.2, 183
02/18/2020,05:07,.2,.2,.2,.2, 211
02/18/2020,05:43,.2,.2,.2,.2, 154
02/18/2020,06:08,.2,.2,.2,.2, 117
02/18/2020,06:18,.2,.2,.2,.2, 2
02/18/2020,06:31,.195,.195,.195,.195, 4994
02/19/2020,01:44,.2,.2,.2,.2, 24
02/19/2020,02:12,.2,.2,.2,.2, 22
02/19/2020,02:57,.2,.2,.2,.2, 36
02/19/2020,03:21,.2,.2,.2,.2, 22
02/19/2020,04:08,.2,.2,.2,.2, 67038
02/19/2020,04:32,.2,.2,.2,.2, 40004
02/19/2020,05:44,.2,.2,.2,.2, 17
02/19/2020,06:15,.2,.2,.2,.2, 27
02/20/2020,01:04,.195,.195,.195,.195, 1000
02/20/2020,03:13,.195,.195,.195,.195, 5180
02/20/2020,03:25,.195,.195,.195,.195, 14265
02/20/2020,05:53,.195,.195,.195,.195, 9005
02/21/2020,01:02,.197,.197,.195,.195, 34793
02/21/2020,01:47,.2,.2,.2,.2, 5
02/21/2020,01:53,.2,.2,.2,.2, 14207
02/21/2020,02:27,.2,.2,.2,.2, 5
02/21/2020,03:41,.2,.2,.2,.2, 5
02/21/2020,04:58,.19,.19,.19,.19, 44283
02/21/2020,05:37,.19,.19,.185,.185, 24554
02/21/2020,06:11,.19,.19,.19,.19, 5
02/21/2020,06:13,.19,.19,.19,.19, 4
02/21/2020,06:15,.19,.19,.19,.19, 4
02/21/2020,06:17,.19,.19,.19,.19, 5
02/21/2020,06:19,.19,.19,.19,.19, 4
02/21/2020,06:31,.19,.19,.19,.19, 168
02/24/2020,01:04,.185,.185,.17,.17, 122104
02/24/2020,05:08,.185,.185,.185,.185, 25700
02/24/2020,06:16,.19,.19,.19,.19, 1486
02/24/2020,06:31,.195,.195,.195,.195, 72
02/25/2020,00:41,.195,.195,.195,.195, 23887
02/25/2020,01:45,.2,.2,.2,.2, 31625
02/25/2020,02:51,.195,.195,.195,.195, 32000
02/25/2020,03:41,.192,.195,.192,.195, 22337
02/25/2020,04:56,.195,.195,.195,.195, 8800
02/25/2020,06:32,.2,.2,.2,.2, 201
02/26/2020,01:15,.195,.195,.195,.195, 54170
02/26/2020,02:51,.195,.195,.195,.195, 5000
02/26/2020,03:59,.195,.195,.195,.195, 4400
02/26/2020,04:30,.195,.195,.195,.195, 21420
02/26/2020,05:53,.19,.19,.19,.19, 1154
02/26/2020,06:14,.185,.185,.185,.185, 2000
02/26/2020,06:31,.19,.19,.19,.19, 202