File: data/202003_Sydney_TGA_NoExpiry.txt
03/02/2020,00:30,.125,.125,.125,.125, 218662
03/02/2020,00:34,.115,.115,.115,.115, 8704
03/02/2020,00:39,.105,.11,.105,.11, 55000
03/02/2020,00:47,.115,.115,.115,.115, 50000
03/02/2020,01:09,.11,.11,.11,.11, 6000
03/02/2020,01:21,.11,.11,.11,.11, 40000
03/02/2020,01:36,.11,.115,.11,.115, 23796
03/02/2020,02:14,.11,.11,.11,.11, 32001
03/02/2020,02:24,.107,.107,.107,.107, 15000
03/02/2020,03:05,.11,.11,.11,.11, 95478
03/02/2020,03:37,.115,.115,.115,.115, 74537
03/02/2020,03:52,.115,.115,.115,.115, 2943
03/02/2020,04:02,.13,.13,.13,.13, 9682
03/02/2020,04:11,.145,.145,.145,.145, 2000
03/02/2020,04:38,.14,.14,.14,.14, 147319
03/02/2020,04:54,.14,.14,.14,.14, 50000
03/02/2020,05:25,.135,.135,.135,.135, 11625
03/02/2020,05:41,.135,.135,.135,.135, 5750
03/02/2020,05:57,.13,.13,.125,.125, 150043
03/02/2020,06:20,.11,.115,.11,.115, 84674
03/03/2020,00:35,.12,.12,.12,.12, 75429
03/03/2020,01:28,.12,.12,.12,.12, 2500
03/03/2020,02:16,.12,.12,.12,.12, 564
03/03/2020,02:53,.12,.12,.12,.12, 102015
03/03/2020,04:47,.125,.125,.125,.125, 20000
03/03/2020,04:59,.125,.125,.125,.125, 45000
03/03/2020,06:20,.12,.12,.12,.12, 1072
03/04/2020,00:33,.12,.12,.12,.12, 39587
03/04/2020,00:37,.12,.12,.12,.12, 6147
03/04/2020,01:47,.12,.12,.12,.12, 162196
03/04/2020,02:10,.12,.12,.12,.12, 100371
03/04/2020,02:39,.12,.12,.12,.12, 20000
03/04/2020,02:59,.12,.12,.12,.12, 1074
03/04/2020,03:59,.125,.125,.125,.125, 1065
03/04/2020,05:11,.125,.125,.125,.125, 1168
03/04/2020,05:24,.117,.117,.117,.117, 32600
03/04/2020,05:32,.117,.117,.117,.117, 85700
03/04/2020,05:43,.117,.117,.117,.117, 125
03/04/2020,05:51,.117,.117,.117,.117, 127
03/04/2020,05:58,.117,.117,.117,.117, 126
03/04/2020,06:19,.11,.11,.11,.11, 126
03/05/2020,00:30,.115,.115,.115,.115, 6731
03/05/2020,00:47,.12,.12,.12,.12, 50000
03/05/2020,01:46,.12,.12,.12,.12, 2170
03/05/2020,02:06,.12,.12,.12,.12, 55000
03/05/2020,02:17,.12,.12,.115,.115, 152477
03/05/2020,02:37,.12,.12,.12,.12, 1000
03/05/2020,03:38,.117,.117,.117,.117, 10250
03/05/2020,04:37,.115,.115,.115,.115, 23500
03/05/2020,05:35,.115,.115,.115,.115, 39670
03/05/2020,05:55,.11,.11,.11,.11, 11661
03/06/2020,00:29,.11,.11,.11,.11, 100000
03/06/2020,01:38,.115,.115,.115,.115, 3850
03/06/2020,02:07,.115,.115,.115,.115, 22710
03/06/2020,02:30,.115,.115,.115,.115, 11999
03/06/2020,02:44,.115,.115,.115,.115, 14100
03/06/2020,03:13,.115,.115,.115,.115, 2911
03/06/2020,05:41,.11,.11,.105,.105, 41178
03/06/2020,06:31,.099,.099,.099,.099, 852634
03/09/2020,01:43,.092,.092,.092,.092, 2500
03/09/2020,02:26,.094,.094,.094,.094, 15000
03/09/2020,02:54,.093,.093,.093,.093, 620
03/09/2020,03:16,.093,.093,.093,.093, 551
03/09/2020,04:06,.09,.09,.089,.089, 210750
03/09/2020,05:32,.093,.095,.093,.095, 255189
03/09/2020,05:41,.095,.095,.095,.095, 51000
03/09/2020,06:02,.095,.096,.095,.096, 22000
03/09/2020,06:31,.089,.089,.089,.089, 200000
03/10/2020,01:07,.089,.089,.089,.089, 15000
03/10/2020,01:41,.089,.089,.089,.089, 197626
03/10/2020,02:38,.089,.089,.089,.089, 14500
03/10/2020,03:17,.088,.088,.088,.088, 9389
03/10/2020,04:49,.09,.09,.09,.09, 7238
03/10/2020,05:43,.088,.088,.088,.088, 21000
03/11/2020,00:30,.089,.089,.089,.089, 16000
03/11/2020,01:02,.096,.096,.096,.096, 13960
03/11/2020,01:24,.095,.095,.095,.095, 1
03/11/2020,02:22,.09,.09,.09,.09, 14827
03/11/2020,02:38,.089,.089,.087,.087, 178907
03/11/2020,03:00,.088,.088,.088,.088, 370000
03/11/2020,04:45,.088,.088,.088,.088, 14458
03/11/2020,06:15,.087,.087,.087,.087, 1950
03/12/2020,02:29,.082,.082,.082,.082, 32000
03/12/2020,03:38,.084,.084,.084,.084, 635
03/12/2020,04:11,.084,.084,.084,.084, 50000
03/12/2020,05:21,.082,.082,.082,.082, 40599
03/12/2020,06:04,.082,.082,.08,.08, 360000
03/13/2020,01:44,.076,.076,.075,.075, 80000
03/13/2020,03:51,.076,.076,.07,.07, 497583
03/13/2020,04:49,.071,.071,.071,.071, 3516
03/13/2020,05:41,.07,.071,.07,.071, 245684
03/16/2020,00:30,.08,.08,.08,.08, 100000
03/16/2020,01:11,.07,.07,.07,.07, 21428
03/16/2020,02:57,.07,.07,.07,.07, 40000
03/16/2020,03:15,.069,.069,.069,.069, 2130
03/16/2020,03:23,.059,.059,.058,.059, 156000
03/16/2020,04:18,.06,.06,.06,.06, 26600
03/16/2020,04:32,.06,.06,.06,.06, 3747
03/17/2020,00:39,.068,.07,.068,.07, 50000
03/17/2020,03:52,.056,.056,.056,.056, 19999
03/17/2020,05:23,.06,.06,.06,.06, 5545
03/17/2020,05:57,.055,.055,.055,.055, 14377
03/17/2020,06:14,.055,.055,.055,.055, 10000
03/17/2020,06:31,.053,.053,.053,.053, 112000
03/18/2020,00:39,.052,.052,.05,.05, 534327
03/18/2020,01:13,.048,.048,.048,.048, 1526
03/18/2020,02:00,.048,.048,.048,.048, 4
03/18/2020,02:10,.048,.048,.048,.048, 150004
03/18/2020,03:09,.047,.047,.047,.047, 15000
03/18/2020,03:34,.048,.048,.048,.048, 199
03/18/2020,03:51,.045,.045,.045,.045, 12000
03/18/2020,04:34,.045,.045,.045,.045, 52203
03/18/2020,05:06,.045,.045,.045,.045, 1165
03/18/2020,05:27,.044,.044,.044,.044, 15863
03/18/2020,05:33,.044,.044,.044,.044, 16872
03/18/2020,05:38,.043,.043,.043,.043, 16189
03/18/2020,05:44,.043,.043,.043,.043, 14571
03/18/2020,05:47,.042,.042,.042,.042, 14288
03/18/2020,05:51,.042,.042,.042,.042, 15041
03/18/2020,05:57,.043,.043,.043,.043, 14942
03/18/2020,06:02,.042,.042,.042,.042, 17191
03/18/2020,06:07,.041,.041,.041,.041, 17278
03/18/2020,06:12,.041,.041,.041,.041, 9823
03/18/2020,06:31,.041,.041,.041,.041, 93711
03/19/2020,02:36,.035,.035,.033,.033, 500000
03/19/2020,03:45,.04,.04,.03,.03, 520119
03/19/2020,04:10,.03,.03,.03,.03, 142000
03/19/2020,05:02,.03,.03,.03,.03, 30000
03/19/2020,05:32,.03,.03,.03,.03, 142172
03/19/2020,05:37,.03,.03,.03,.03, 58000
03/20/2020,00:46,.041,.041,.041,.041, 20000
03/20/2020,01:09,.042,.042,.042,.042, 4000
03/20/2020,01:53,.045,.045,.045,.045, 40000
03/20/2020,02:35,.05,.05,.05,.05, 252328
03/20/2020,03:55,.046,.046,.045,.045, 125503
03/20/2020,05:42,.037,.037,.037,.037, 10000
03/20/2020,05:59,.04,.04,.04,.04, 17456
03/20/2020,06:32,.038,.038,.038,.038, 59
03/23/2020,00:40,.035,.035,.035,.035, 25000
03/23/2020,01:35,.038,.038,.038,.038, 60000
03/23/2020,01:57,.038,.038,.035,.035, 157000
03/23/2020,04:53,.035,.038,.035,.038, 49474
03/23/2020,06:16,.034,.034,.034,.034, 1
03/24/2020,00:29,.035,.035,.035,.035, 230000
03/24/2020,01:14,.035,.035,.035,.035, 98801
03/24/2020,01:52,.035,.035,.035,.035, 20000
03/24/2020,02:15,.03,.03,.03,.03, 1616
03/24/2020,04:21,.032,.032,.032,.032, 416930
03/24/2020,05:20,.036,.036,.036,.036, 35000
03/25/2020,00:35,.039,.039,.039,.039, 70858
03/25/2020,01:05,.044,.044,.044,.044, 15100
03/25/2020,01:29,.05,.05,.05,.05, 9694
03/25/2020,03:51,.058,.058,.058,.058, 646
03/25/2020,05:05,.05,.05,.044,.044, 29000
03/25/2020,05:38,.039,.039,.039,.039, 249992
03/26/2020,01:05,.04,.04,.04,.04, 50000
03/26/2020,01:12,.04,.04,.04,.04, 42500
03/26/2020,01:41,.04,.04,.037,.037, 24900
03/26/2020,05:34,.045,.045,.045,.045, 110000
03/26/2020,06:14,.05,.05,.046,.046, 9917
03/27/2020,00:41,.046,.046,.046,.046, 2000
03/27/2020,01:42,.046,.046,.046,.046, 81
03/27/2020,02:36,.046,.046,.046,.046, 27380
03/27/2020,03:11,.046,.046,.046,.046, 15552
03/27/2020,04:44,.046,.046,.046,.046, 3803
03/30/2020,01:40,.045,.045,.045,.045, 110000
03/30/2020,02:47,.046,.046,.046,.046, 152425
03/30/2020,03:40,.048,.048,.048,.048, 14000
03/30/2020,03:56,.046,.046,.046,.046, 94907
03/30/2020,04:40,.046,.046,.046,.046, 18865
03/30/2020,05:05,.046,.046,.046,.046, 39211
03/30/2020,06:06,.046,.046,.046,.046, 28416
03/30/2020,06:49,.046,.047,.046,.047, 35972
03/30/2020,07:19,.049,.049,.049,.049, 22158
03/31/2020,01:38,.051,.051,.051,.051, 11390
03/31/2020,03:31,.052,.052,.052,.052, 10000
03/31/2020,04:20,.056,.056,.056,.056, 50000
03/31/2020,05:07,.055,.055,.055,.055, 35000
03/31/2020,05:36,.055,.055,.055,.055, 62605
03/31/2020,07:10,.051,.051,.051,.051, 12173