File: data/202001_Sydney_TGA_NoExpiry.txt
01/03/2020,00:39,.21,.21,.21,.21, 8196
01/03/2020,00:52,.21,.21,.21,.21, 41804
01/03/2020,00:55,.21,.21,.21,.21, 59027
01/03/2020,01:06,.21,.21,.21,.21, 30708
01/03/2020,01:27,.21,.21,.21,.21, 5650
01/03/2020,01:34,.205,.205,.205,.205, 5000
01/03/2020,05:11,.215,.215,.21,.21, 16000
01/03/2020,06:19,.215,.22,.215,.22, 64701
01/03/2020,06:32,.22,.22,.22,.22, 12800
01/06/2020,00:29,.23,.23,.23,.23, 3900
01/06/2020,03:41,.22,.22,.22,.22, 2300
01/06/2020,03:54,.215,.215,.21,.21, 17700
01/07/2020,02:42,.21,.21,.21,.21, 16132
01/07/2020,03:45,.207,.21,.207,.21, 74043
01/07/2020,04:29,.21,.21,.21,.21, 1353
01/07/2020,05:41,.21,.21,.21,.21, 2490
01/08/2020,01:39,.215,.215,.215,.215, 81
01/08/2020,01:48,.205,.215,.205,.215, 5233
01/08/2020,02:04,.205,.205,.205,.205, 2299
01/08/2020,02:21,.215,.215,.215,.215, 23
01/08/2020,02:31,.21,.21,.21,.21, 1400
01/08/2020,05:07,.21,.21,.21,.21, 3818
01/08/2020,05:54,.21,.21,.21,.21, 14544
01/08/2020,05:56,.21,.21,.21,.21, 155
01/09/2020,00:36,.21,.215,.21,.215, 3883
01/09/2020,00:37,.215,.215,.215,.215, 11282
01/09/2020,02:13,.22,.22,.22,.22, 29
01/09/2020,02:20,.215,.215,.215,.215, 30315
01/09/2020,02:31,.215,.215,.215,.215, 19
01/09/2020,02:42,.21,.21,.21,.21, 76045
01/09/2020,02:43,.21,.21,.21,.21, 2300
01/09/2020,04:35,.21,.21,.21,.21, 510
01/10/2020,00:30,.21,.21,.21,.21, 2500
01/10/2020,03:22,.215,.215,.215,.215, 1546
01/10/2020,04:58,.215,.215,.215,.215, 25000
01/10/2020,05:38,.22,.22,.22,.22, 15208
01/10/2020,06:06,.215,.215,.215,.215, 20000
01/10/2020,06:11,.22,.22,.22,.22, 404
01/10/2020,06:16,.215,.215,.215,.215, 5400
01/10/2020,06:17,.22,.22,.22,.22, 38669
01/13/2020,00:30,.215,.215,.215,.215, 2500
01/13/2020,01:35,.215,.22,.215,.22, 14040
01/13/2020,03:22,.215,.22,.215,.22, 25252
01/13/2020,05:50,.218,.218,.215,.215, 73849
01/13/2020,06:32,.215,.215,.215,.215, 703
01/14/2020,01:25,.215,.215,.215,.215, 101
01/14/2020,01:54,.215,.215,.215,.215, 284501
01/14/2020,02:37,.21,.215,.21,.215, 12402
01/14/2020,06:32,.215,.215,.215,.215, 1664
01/15/2020,00:30,.215,.22,.215,.22, 21944
01/15/2020,01:23,.215,.22,.215,.22, 10099
01/15/2020,02:27,.215,.218,.215,.218, 40456
01/15/2020,03:40,.215,.215,.215,.215, 2072
01/15/2020,04:55,.21,.21,.21,.21, 15000
01/15/2020,04:56,.212,.215,.212,.215, 678
01/15/2020,05:04,.212,.215,.212,.215, 15984
01/15/2020,05:38,.22,.22,.22,.22, 397
01/15/2020,05:57,.215,.215,.215,.215, 10650
01/16/2020,00:29,.215,.215,.215,.215, 1800
01/16/2020,00:45,.215,.215,.215,.215, 4000
01/16/2020,01:30,.215,.215,.215,.215, 100000
01/16/2020,01:30,.22,.22,.22,.22, 977
01/16/2020,03:54,.22,.22,.22,.22, 1254
01/16/2020,05:00,.215,.215,.215,.215, 31000
01/17/2020,00:29,.215,.215,.215,.215, 5000
01/17/2020,00:30,.22,.22,.22,.22, 1297
01/17/2020,01:18,.22,.22,.22,.22, 9297
01/17/2020,02:05,.22,.22,.22,.22, 15239
01/17/2020,02:24,.225,.227,.225,.227, 20231
01/17/2020,02:41,.227,.227,.227,.227, 165
01/17/2020,02:56,.227,.23,.227,.23, 75277
01/17/2020,03:09,.225,.225,.225,.225, 2813
01/17/2020,03:11,.23,.23,.23,.23, 31923
01/17/2020,03:21,.23,.23,.23,.23, 591956
01/17/2020,04:07,.235,.235,.235,.235, 35000
01/17/2020,04:08,.235,.235,.235,.235, 329
01/17/2020,04:10,.237,.237,.235,.235, 329
01/17/2020,05:32,.237,.237,.235,.235, 10000
01/17/2020,05:48,.237,.237,.235,.235, 45000
01/17/2020,05:50,.237,.237,.235,.235, 1000
01/17/2020,06:31,.235,.235,.235,.235, 36287
01/20/2020,00:30,.235,.24,.235,.24, 23498
01/20/2020,00:33,.24,.24,.24,.24, 859
01/20/2020,00:39,.24,.24,.24,.24, 24363
01/20/2020,00:39,.24,.24,.24,.24, 126
01/20/2020,02:05,.24,.24,.24,.24, 44
01/20/2020,02:28,.235,.235,.225,.227, 349222
01/20/2020,02:32,.227,.23,.227,.23, 30809
01/20/2020,03:43,.227,.23,.227,.23, 450
01/20/2020,03:55,.227,.23,.227,.23, 468
01/20/2020,04:36,.23,.23,.23,.23, 12227
01/20/2020,04:48,.227,.227,.227,.227, 4000
01/20/2020,04:58,.227,.227,.227,.227, 1209
01/20/2020,05:00,.227,.227,.227,.227, 378
01/20/2020,05:14,.227,.227,.227,.227, 398
01/20/2020,05:37,.23,.23,.227,.23, 1577
01/20/2020,05:51,.227,.227,.227,.227, 436
01/20/2020,05:54,.227,.227,.227,.227, 4050
01/20/2020,06:05,.227,.227,.227,.227, 266
01/20/2020,06:07,.227,.23,.225,.225, 21596
01/20/2020,06:15,.225,.225,.225,.225, 4200
01/20/2020,06:31,.225,.225,.225,.225, 22489
01/21/2020,00:30,.225,.225,.225,.225, 31600
01/21/2020,00:51,.225,.225,.225,.225, 7420
01/21/2020,02:19,.225,.23,.225,.227, 13689
01/21/2020,03:30,.23,.23,.23,.23, 3884
01/21/2020,04:04,.225,.225,.225,.225, 876
01/21/2020,04:12,.225,.225,.225,.225, 129000
01/21/2020,04:14,.23,.235,.23,.235, 19260
01/21/2020,04:18,.227,.227,.225,.225, 6524
01/21/2020,05:22,.227,.227,.227,.227, 628
01/21/2020,06:32,.225,.225,.225,.225, 38359
01/22/2020,01:58,.225,.225,.22,.22, 200142
01/22/2020,02:38,.22,.22,.22,.22, 28564
01/22/2020,02:43,.215,.215,.215,.215, 9547
01/22/2020,03:41,.215,.215,.215,.215, 25000
01/22/2020,06:32,.215,.215,.215,.215, 17337
01/23/2020,00:37,.215,.215,.215,.215, 10000
01/23/2020,00:40,.215,.215,.215,.215, 2283
01/23/2020,01:28,.215,.215,.215,.215, 3162
01/23/2020,03:29,.215,.215,.215,.215, 458
01/23/2020,06:15,.215,.215,.215,.215, 16639
01/24/2020,00:30,.22,.22,.22,.22, 16534
01/24/2020,00:48,.22,.22,.22,.22, 10700
01/24/2020,01:32,.22,.22,.22,.22, 14101
01/24/2020,01:50,.22,.22,.22,.22, 10202
01/24/2020,02:13,.22,.22,.22,.22, 48463
01/24/2020,04:18,.215,.215,.215,.215, 853
01/28/2020,00:30,.215,.215,.215,.215, 24000
01/28/2020,00:32,.215,.215,.215,.215, 1000
01/28/2020,00:35,.215,.215,.215,.215, 10000
01/28/2020,02:38,.215,.215,.215,.215, 10613
01/28/2020,03:44,.215,.215,.215,.215, 5000
01/28/2020,03:47,.215,.215,.215,.215, 29387
01/28/2020,05:36,.215,.215,.215,.215, 5943
01/29/2020,01:15,.22,.22,.22,.22, 30113
01/29/2020,03:38,.225,.225,.225,.225, 31033
01/29/2020,03:52,.22,.22,.22,.22, 17854
01/29/2020,03:54,.22,.22,.22,.22, 48000
01/30/2020,05:06,.225,.23,.225,.225, 39814